   Interval Wave (nm)          AO2          AO3
          1     121.5    0.100E+01    0.000E+00
          2     116.7    0.200E-19    0.780E-17
          3     117.3    0.125E-17    0.797E-17
          4     117.9    0.255E-18    0.866E-17
          5     118.7    0.300E-19    0.951E-17
          6     119.4    0.375E-18    0.125E-16
          7     120.2    0.445E-17    0.184E-16
          8     120.8    0.835E-17    0.219E-16
          9     121.6    0.600E-18    0.230E-16
         10     122.3    0.235E-18    0.226E-16
         11     123.1    0.450E-18    0.206E-16
         12     123.8    0.335E-18    0.130E-16
         13     124.6    0.175E-16    0.891E-17
         14     125.4    0.895E-18    0.724E-17
         15     126.2    0.430E-18    0.609E-17
         16     127.0    0.110E-18    0.566E-17
         17     127.8    0.205E-18    0.587E-17
         18     128.6    0.443E-18    0.647E-17
         19     129.4    0.555E-18    0.814E-17
         20     130.3    0.420E-18    0.124E-16
         21     131.1    0.685E-18    0.152E-16
         22     132.0    0.145E-17    0.147E-16
         23     132.9    0.225E-17    0.151E-16
         24     133.8    0.230E-17    0.151E-16
         25     134.6    0.455E-17    0.165E-16
         26     135.6    0.723E-17    0.154E-16
         27     136.5    0.950E-17    0.135E-16
         28     137.4    0.123E-16    0.105E-16
         29     138.4    0.132E-16    0.797E-17
         30     139.9    0.136E-16    0.717E-17
         31     141.8    0.140E-16    0.628E-17
         32     143.9    0.148E-16    0.566E-17
         33     145.9    0.141E-16    0.523E-17
         34     148.1    0.129E-16    0.447E-17
         35     150.4    0.115E-16    0.369E-17
         36     152.6    0.991E-17    0.293E-17
         37     155.0    0.824E-17    0.219E-17
         38     157.4    0.658E-17    0.163E-17
         39     160.0    0.497E-17    0.120E-17
         40     162.6    0.345E-17    0.977E-18
         41     165.3    0.208E-17    0.866E-18
         42     168.1    0.123E-17    0.814E-18
         43     170.9    0.722E-18    0.817E-18
         44     173.1    0.458E-18    0.857E-18
         45     174.6    0.274E-18    0.840E-18
         46     176.2    0.461E-23    0.810E-18
         47     177.8    0.503E-23    0.800E-18
         48     179.4    0.546E-23    0.790E-18
         49     181.0    0.588E-23    0.760E-18
         50     182.7    0.629E-23    0.730E-18
         51     184.3    0.668E-23    0.690E-18
         52     186.1    0.704E-23    0.640E-18
         53     187.8    0.736E-23    0.590E-18
         54     189.6    0.764E-23    0.530E-18
         55     191.4    0.787E-23    0.480E-18
         56     193.2    0.804E-23    0.440E-18
         57     195.1    0.814E-23    0.410E-18
         58     197.0    0.817E-23    0.370E-18
         59     199.0    0.813E-23    0.330E-18
         60     201.0    0.801E-23    0.326E-18
         61     203.1    0.784E-23    0.326E-18
         62     205.1    0.763E-23    0.351E-18
         63     207.3    0.733E-23    0.411E-18
         64     209.4    0.699E-23    0.484E-18
         65     211.6    0.645E-23    0.626E-18
         66     213.9    0.581E-23    0.857E-18
         67     216.2    0.523E-23    0.117E-17
         68     218.6    0.471E-23    0.152E-17
         69     221.0    0.426E-23    0.197E-17
         70     223.5    0.380E-23    0.255E-17
         71     226.0    0.335E-23    0.324E-17
         72     228.6    0.290E-23    0.400E-17
         73     231.2    0.245E-23    0.483E-17
         74     233.9    0.205E-23    0.579E-17
         75     236.7    0.169E-23    0.686E-17
         76     239.5    0.130E-23    0.797E-17
         77     242.4    0.930E-24    0.900E-17
         78     245.4    0.000E+00    0.100E-16
         79     248.5    0.000E+00    0.108E-16
         80     251.6    0.000E+00    0.113E-16
         81     254.8    0.000E+00    0.115E-16
         82     258.1    0.000E+00    0.112E-16
         83     261.4    0.000E+00    0.106E-16
         84     264.9    0.000E+00    0.960E-17
         85     268.5    0.000E+00    0.830E-17
         86     272.1    0.000E+00    0.690E-17
         87     275.9    0.000E+00    0.540E-17
         88     279.7    0.000E+00    0.400E-17
         89     283.7    0.000E+00    0.270E-17
         90     287.8    0.000E+00    0.180E-17
         91     292.0    0.000E+00    0.110E-17
         92     296.3    0.000E+00    0.610E-18
         93     300.8    0.000E+00    0.330E-18
         94     305.3    0.000E+00    0.180E-18
         95     310.0    0.000E+00    0.920E-19
         96     315.0    0.000E+00    0.470E-19
         97     320.0    0.000E+00    0.230E-19
         98     325.0    0.000E+00    0.110E-19
         99     330.0    0.000E+00    0.540E-20
        100     335.0    0.000E+00    0.240E-20
        101     340.0    0.000E+00    0.970E-21
        102     345.0    0.000E+00    0.380E-21
        103     350.0    0.000E+00    0.270E-21
        104     355.0    0.000E+00    0.110E-21
        105     360.0    0.000E+00    0.550E-22
        106     365.0    0.000E+00    0.000E+00
        107     370.0    0.000E+00    0.000E+00
        108     375.0    0.000E+00    0.000E+00
        109     380.0    0.000E+00    0.000E+00
        110     385.0    0.000E+00    0.000E+00
        111     390.0    0.000E+00    0.000E+00
        112     395.0    0.000E+00    0.000E+00
        113     400.0    0.000E+00    0.000E+00
        114     405.0    0.000E+00    0.000E+00
        115     410.0    0.000E+00    0.290E-22
        116     415.0    0.000E+00    0.310E-22
        117     420.0    0.000E+00    0.400E-22
        118     425.0    0.000E+00    0.650E-22
        119     430.0    0.000E+00    0.680E-22
        120     435.0    0.000E+00    0.870E-22
        121     440.0    0.000E+00    0.130E-21
        122     445.0    0.000E+00    0.150E-21
        123     450.0    0.000E+00    0.170E-21
        124     455.0    0.000E+00    0.210E-21
        125     460.0    0.000E+00    0.360E-21
        126     465.0    0.000E+00    0.370E-21
        127     470.0    0.000E+00    0.410E-21
        128     475.0    0.000E+00    0.490E-21
        129     480.0    0.000E+00    0.710E-21
        130     485.0    0.000E+00    0.840E-21
        131     490.0    0.000E+00    0.830E-21
        132     495.0    0.000E+00    0.910E-21
        133     500.0    0.000E+00    0.120E-20
        134     505.0    0.000E+00    0.160E-20
        135     510.0    0.000E+00    0.160E-20
        136     515.0    0.000E+00    0.160E-20
        137     520.0    0.000E+00    0.180E-20
        138     525.0    0.000E+00    0.210E-20
        139     530.0    0.000E+00    0.260E-20
        140     535.0    0.000E+00    0.270E-20
        141     540.0    0.000E+00    0.290E-20
        142     545.0    0.000E+00    0.310E-20
        143     550.0    0.000E+00    0.320E-20
        144     555.0    0.000E+00    0.340E-20
        145     560.0    0.000E+00    0.390E-20
        146     565.0    0.000E+00    0.430E-20
        147     570.0    0.000E+00    0.470E-20
        148     575.0    0.000E+00    0.480E-20
        149     580.0    0.000E+00    0.460E-20
        150     585.0    0.000E+00    0.440E-20
        151     590.0    0.000E+00    0.440E-20
        152     595.0    0.000E+00    0.460E-20
        153     600.0    0.000E+00    0.490E-20
        154     605.0    0.000E+00    0.480E-20
        155     610.0    0.000E+00    0.450E-20
        156     615.0    0.000E+00    0.420E-20
        157     620.0    0.000E+00    0.390E-20
        158     625.0    0.000E+00    0.360E-20
        159     630.0    0.000E+00    0.340E-20
        160     635.0    0.000E+00    0.320E-20
        161     640.0    0.000E+00    0.270E-20
        162     645.0    0.000E+00    0.260E-20
        163     650.0    0.000E+00    0.240E-20
        164     655.0    0.000E+00    0.220E-20
        165     660.0    0.000E+00    0.200E-20
        166     665.0    0.000E+00    0.190E-20
        167     670.0    0.000E+00    0.170E-20
        168     675.0    0.000E+00    0.150E-20
        169     680.0    0.000E+00    0.140E-20
        170     685.0    0.000E+00    0.130E-20
        171     690.0    0.000E+00    0.110E-20
        172     695.0    0.000E+00    0.100E-20
        173     700.0    0.000E+00    0.920E-21
        174     705.0    0.000E+00    0.840E-21
        175     710.0    0.000E+00    0.770E-21
        176     715.0    0.000E+00    0.690E-21
        177     720.0    0.000E+00    0.630E-21
        178     725.0    0.000E+00    0.570E-21
        179     730.0    0.000E+00    0.530E-21
        180     735.0    0.000E+00    0.480E-21
        181     740.0    0.000E+00    0.450E-21
        182     745.0    0.000E+00    0.420E-21
        183     750.0    0.000E+00    0.380E-21
        184     755.0    0.000E+00    0.330E-21
        185     760.0    0.000E+00    0.290E-21
        186     765.0    0.000E+00    0.280E-21
        187     770.0    0.000E+00    0.270E-21
        188     775.0    0.000E+00    0.280E-21
        189     780.0    0.000E+00    0.285E-21
        190     785.0    0.000E+00    0.252E-21
        191     790.0    0.000E+00    0.220E-21
        192     795.0    0.000E+00    0.182E-21
        193     800.0    0.000E+00    0.163E-21
        194     805.0    0.000E+00    0.175E-21
        195     810.0    0.000E+00    0.190E-21
        196     815.0    0.000E+00    0.185E-21
        197     820.0    0.000E+00    0.170E-21
        198     825.0    0.000E+00    0.152E-21
        199     830.0    0.000E+00    0.142E-21
        200     835.0    0.000E+00    0.140E-21
        201     840.0    0.000E+00    0.140E-21
        202     845.0    0.000E+00    0.142E-21
        203     850.0    0.000E+00    0.145E-21
